Data from Transmission_11-03-06-314.txt Node
Date: Fri Aug 02 11:03:06 EDT 2019
User: maxen
Spectrometer: USB2G16502
Scans to average: 1
Trigger mode: 4
Integration Time (sec): 1,000000E-1
Electric dark correction enabled: true
Boxcar width: 0
XAxis mode: Wavelengths
Number of Pixels in Spectrum: 2048
>>>>>Begin Spectral Data<<<<<
339,156	-440
339,534	118
339,911	55
340,288	550
340,665	-80
341,042	1000
341,419	-350
341,796	78,05
342,173	173,47
342,55	325
342,927	307,69
343,304	100
343,68	-63,64
344,057	100
344,434	-800
344,811	-92,86
345,187	550
345,564	55
345,941	1225
346,317	820
346,694	164,29
347,07	169,23
347,447	-68,75
347,823	70,97
348,199	100
348,576	1225
348,952	68,97
349,328	6,9
349,705	190
350,081	238,46
350,457	158,06
350,833	15,62
351,209	143,9
351,585	44,9
351,961	52,63
352,337	1000
352,713	-74,19
353,089	-125
353,465	-173,91
353,841	-173,91
354,217	169,23
354,593	-125
354,968	100
355,344	-92,86
355,72	-315,38
356,095	35,71
356,471	60,87
356,847	228,57
357,222	53,45
357,598	22,41
357,973	820
358,349	-125
358,724	-1025
359,099	59,7
359,475	256,52
359,85	-107,69
360,225	122,5
360,6	-221,43
360,976	-20,9
361,351	6,9
361,726	181,82
362,101	-1925
362,476	57,65
362,851	-800
363,226	17,11
363,601	64
363,976	122,5
364,351	100
364,726	41,94
365,1	-92,86
365,475	-125
365,85	100
366,225	18,18
366,599	1180
366,974	238,46
367,348	-125
367,723	-7,46
368,097	1225
368,472	100
368,846	14,74
369,221	100
369,595	100
369,969	21,74
370,344	-95,65
370,718	68,97
371,092	129,03
371,466	181,82
371,841	140,91
372,215	100
372,589	70,97
372,963	145
373,337	131,03
373,711	-45,16
374,085	77,5
374,459	-57,5
374,832	-125
375,206	15,62
375,58	-104,55
375,954	-260
376,327	71,87
376,701	307,69
377,075	-92,86
377,448	-40,26
377,822	128,13
378,195	100
378,569	34,15
378,942	128,13
379,316	41,94
379,689	-80
380,063	-125
380,436	139,13
380,809	187,1
381,182	35,71
381,556	-125
381,929	6,9
382,302	-35
382,675	59,09
383,048	46
383,421	32,84
383,794	-260
384,167	139,13
384,54	169,23
384,913	46,27
385,286	12,9
385,659	21,74
386,031	63,27
386,404	212,5
386,777	-12,5
387,149	-107,69
387,522	-440
387,895	-103,23
388,267	-10,2
388,64	820
389,012	-42,11
389,385	60,87
389,757	-63,64
390,129	-260
390,502	59,09
390,874	216,13
391,246	446,15
391,619	63,27
391,991	-350
392,363	820
392,735	-39,66
393,107	59,09
393,479	32,5
393,851	-186,36
394,223	280
394,595	-16,47
394,967	84,48
395,339	-120,41
395,711	-80
396,082	-38,46
396,454	-92,86
396,826	-38,46
397,198	100
397,569	13,83
397,941	-28,57
398,312	64,47
398,684	-28,57
399,055	6,9
399,427	-157,14
399,798	44,9
400,17	23,4
400,541	-8,62
400,912	3,31
401,284	-55,17
401,655	3,57
402,026	25,39
402,397	-21,62
402,768	7,83
403,139	-3,01
403,51	25,48
403,881	9,61
404,252	-2,27
404,623	1,56
404,994	-21,24
405,365	6,44
405,736	21,17
406,107	14,13
406,477	5,63
406,848	-9,76
407,219	-3,58
407,59	-5,62
407,96	-7,05
408,331	-1,2
408,701	-1,02
409,072	0,86
409,442	4,04
409,813	0,75
410,183	-0,8
410,553	4,34
410,924	0,64
411,294	-0,62
411,664	-2,73
412,034	-7,33
412,405	-2,52
412,775	2,96
413,145	-0,47
413,515	1,87
413,885	-1,16
414,255	-1,81
414,625	3,57
414,995	-0,99
415,364	-1,47
415,734	0,75
416,104	-0,28
416,474	-0,27
416,844	1,58
417,213	0,2
417,583	-1,45
417,952	-0,98
418,322	2,65
418,692	-0,19
419,061	1,13
419,43	1,06
419,8	1,01
420,169	-0,15
420,539	0,66
420,908	-0,89
421,277	1,09
421,646	1
422,016	0,09
422,385	1,28
422,754	0,29
423,123	0,64
423,492	0,25
423,861	0,75
424,23	0,07
424,599	1,59
424,968	0,65
425,337	0,62
425,705	0,06
426,074	0,31
426,443	-0,19
426,812	-0,18
427,18	-1,09
427,549	-0,39
427,918	1,07
428,286	0,14
428,655	0,41
429,023	-0,59
429,392	-0,05
429,76	-0,21
430,128	0,28
430,497	0,35
430,865	0,56
431,233	-0,41
431,601	0,1
431,97	-0,04
432,338	-0,11
432,706	0,09
433,074	0,03
433,442	0,21
433,81	0,03
434,178	0,15
434,546	0,26
434,914	0,36
435,281	0,31
435,649	0,55
436,017	0,08
436,385	0,14
436,752	0,08
437,12	0,2
437,488	0,37
437,855	0,43
438,223	-0,03
438,59	0,09
438,958	0,09
439,325	-0,35
439,693	0,36
440,06	-0,04
440,427	0,38
440,794	0,18
441,162	0,26
441,529	0,5
441,896	-0,2
442,263	0,78
442,63	0,04
442,997	0,13
443,364	0,51
443,731	0,14
444,098	0,05
444,465	0,05
444,832	0,27
445,199	0,17
445,566	-0,44
445,932	0,43
446,299	1,07
446,666	-0,46
447,032	-0,48
447,399	-0,5
447,765	1,06
448,132	-0,23
448,498	-0,08
448,865	0,52
449,231	-1,05
449,597	0,4
449,964	-0,9
450,33	0,24
450,696	0,4
451,063	-0,26
451,429	0,08
451,795	1,13
452,161	0,25
452,527	0,26
452,893	-1,77
453,259	-0,83
453,625	1,16
453,991	1,39
454,357	1,47
454,722	-0,31
455,088	1,65
455,454	0,3
455,82	1,33
456,185	2,22
456,551	0,97
456,916	0,76
457,282	-0,12
457,648	-0,58
458,013	1,04
458,378	1,47
458,744	-0,14
459,109	-0,39
459,474	1,61
459,84	0,35
460,205	-0,14
460,57	0,85
460,935	-0,38
461,3	0,11
461,666	1,41
462,031	-0,65
462,396	2,41
462,761	1,86
463,126	1,38
463,49	1,14
463,855	1,86
464,22	0,83
464,585	1,34
464,95	0,62
465,314	1,53
465,679	1,06
466,044	0,1
466,408	0,34
466,773	0,77
467,137	0,33
467,502	1,83
467,866	-0,98
468,23	0,31
468,595	0,5
468,959	0,9
469,323	-0,52
469,688	0,86
470,052	-0,11
470,416	1,01
470,78	1,02
471,144	0,45
471,508	2,08
471,872	0,08
472,236	1,1
472,6	0,07
472,964	0,24
473,328	0,55
473,692	1,18
474,055	0,22
474,419	0,81
474,783	0,21
475,146	0,48
475,51	-0,08
475,874	-0,34
476,237	0,33
476,601	1,22
476,964	0,06
477,327	1,04
477,691	-0,07
478,054	0,05
478,417	0,64
478,781	-0,63
479,144	0,05
479,507	1,03
479,87	0,05
480,233	0,79
480,596	-0,16
480,959	0,34
481,322	0,14
481,685	0,04
482,048	-0,05
482,411	0,69
482,774	-0,88
483,137	0,49
483,499	0,04
483,862	0,21
484,225	-0,05
484,588	0,37
484,95	0,2
485,313	0,27
485,675	0,82
486,038	0,19
486,4	0,11
486,762	0,49
487,125	0,33
487,487	0,18
487,849	0,03
488,212	0,8
488,574	0,38
488,936	0,59
489,298	0,38
489,66	0,86
490,022	1,24
490,384	1,41
490,746	2,43
491,108	4,19
491,47	6,54
491,832	10,21
492,194	13,75
492,555	17,68
492,917	22,52
493,279	26,51
493,64	30,18
494,002	34,01
494,364	38,59
494,725	43,22
495,087	46,53
495,448	51,09
495,809	55,9
496,171	61,24
496,532	66,06
496,893	68,3
497,255	72,09
497,616	76,07
497,977	83,12
498,338	86,29
498,699	89,42
499,06	92,27
499,421	94,3
499,782	95,53
500,143	94,06
500,504	95,31
500,865	96,15
501,226	97,21
501,586	98,53
501,947	97,3
502,308	97,23
502,669	100,22
503,029	97,55
503,39	98,45
503,75	97,33
504,111	96,16
504,471	95,39
504,832	94,83
505,192	96,89
505,552	98,59
505,913	99,78
506,273	98,85
506,633	98,76
506,993	97,79
507,353	96,37
507,713	94,01
508,073	96,06
508,433	95,36
508,793	97,49
509,153	97,63
509,513	97,75
509,873	98
510,233	96,92
510,593	95,5
510,952	95,64
511,312	95,42
511,672	98,43
512,031	96,52
512,391	97,22
512,75	98,57
513,11	98,23
513,469	95,62
513,829	97,29
514,188	96,08
514,548	97,23
514,907	99,26
515,266	97,15
515,625	95,2
515,984	96,35
516,344	96,66
516,703	95,83
517,062	95,48
517,421	95,21
517,78	95,81
518,139	98,11
518,497	97,5
518,856	97,29
519,215	96,62
519,574	97,29
519,933	96,03
520,291	95,87
520,65	94,69
521,009	96,16
521,367	99,26
521,726	99,69
522,084	97,91
522,443	93,7
522,801	96,42
523,159	96,67
523,518	95,55
523,876	94,55
524,234	93,3
524,592	91,85
524,95	88,56
525,309	86,57
525,667	82,97
526,025	78,73
526,383	74,15
526,741	70,33
527,099	64,62
527,456	61,17
527,814	58,29
528,172	53,88
528,53	48,97
528,887	43,85
529,245	40,4
529,603	36,18
529,96	32,2
530,318	27,3
530,675	23,02
531,033	19,28
531,39	15,41
531,748	11,94
532,105	8,47
532,462	5,65
532,82	3,8
533,177	1,68
533,534	0,88
533,891	0,54
534,248	0,31
534,605	0,5
534,962	0,3
535,319	0,07
535,676	-0,03
536,033	0,34
536,39	-0,12
536,747	0,07
537,104	0,21
537,46	-0,07
537,817	0,02
538,174	0,25
538,53	0,07
538,887	-0,2
539,243	0,16
539,6	-0,16
539,956	0,11
540,313	-0,12
540,669	0,42
541,025	0,61
541,382	-0,25
541,738	-0,02
542,094	-0,21
542,45	0,15
542,806	0,06
543,162	0,38
543,518	0,11
543,874	0,2
544,23	-0,24
544,586	0,11
544,942	-0,07
545,298	-0,07
545,654	0,11
546,009	0,2
546,365	-0,15
546,721	-0,07
547,076	0,06
547,432	-0,02
547,788	0,15
548,143	0,06
548,499	0,24
548,854	0,11
549,209	0,06
549,565	0,02
549,92	-0,11
550,275	0,15
550,63	0,06
550,986	0,11
551,341	0,06
551,696	0,02
552,051	0,19
552,406	-0,2
552,761	-0,11
553,116	0,28
553,471	-0,11
553,825	-0,24
554,18	-0,28
554,535	0,11
554,89	0,41
555,244	0,19
555,599	0,28
555,954	-0,02
556,308	-0,11
556,663	0,11
557,017	-0,07
557,371	-0,11
557,726	0,11
558,08	-0,2
558,435	0,11
558,789	0,23
559,143	-0,02
559,497	-0,02
559,851	0,24
560,205	-0,11
560,559	-0,02
560,913	-0,24
561,267	-0,15
561,621	0,02
561,975	-0,07
562,329	0,28
562,683	0,06
563,037	-0,28
563,39	0,02
563,744	-0,33
564,098	0,06
564,451	-0,07
564,805	-0,07
565,158	-0,02
565,512	0,15
565,865	-0,02
566,218	0,15
566,572	-0,07
566,925	-0,11
567,278	-0,02
567,632	-0,2
567,985	-0,11
568,338	-0,15
568,691	0,23
569,044	0,45
569,397	0,27
569,75	-0,19
570,103	0,06
570,456	0,23
570,809	-0,15
571,161	0,1
571,514	-0,19
571,867	-0,07
572,22	-0,07
572,572	0,02
572,925	-0,07
573,277	-0,19
573,63	-0,23
573,982	0,06
574,335	0,02
574,687	-0,02
575,039	0,31
575,392	0,06
575,744	0,19
576,096	0,06
576,448	0,02
576,8	-0,15
577,152	-0,2
577,504	0,02
577,856	-0,02
578,208	0,1
578,56	0,31
578,912	0,1
579,264	0,23
579,616	0,58
579,968	-0,07
580,319	0,06
580,671	0,23
581,022	0,1
581,374	-0,15
581,726	0,26
582,077	-0,02
582,429	-0,11
582,78	0,1
583,131	0,19
583,483	0,32
583,834	-0,07
584,185	0,02
584,536	0,14
584,887	0,14
585,239	0,1
585,59	-0,02
585,941	0,06
586,292	0,06
586,643	0,39
586,993	0,14
587,344	0,14
587,695	-0,15
588,046	0,1
588,397	-0,15
588,747	-0,11
589,098	-0,15
589,448	0,18
589,799	-0,11
590,15	0,18
590,5	-0,11
590,85	-0,19
591,201	-0,15
591,551	-0,02
591,901	-0,1
592,252	0,18
592,602	0,23
592,952	0,06
593,302	-0,06
593,652	0,1
594,002	0,02
594,352	0,35
594,702	0,23
595,052	-0,11
595,402	0,06
595,752	-0,11
596,102	-0,02
596,451	0,23
596,801	-0,07
597,151	-0,07
597,5	-0,02
597,85	0,02
598,199	0,1
598,549	0,02
598,898	-0,07
599,248	0,06
599,597	-0,02
599,946	-0,11
600,296	-0,07
600,645	-0,24
600,994	-0,07
601,343	0,41
601,692	-0,33
602,041	0,41
602,39	-0,07
602,739	-0,25
603,088	-0,2
603,437	0,02
603,786	-0,16
604,135	-0,07
604,484	-0,2
604,832	0,25
605,181	-0,03
605,53	-0,16
605,878	0,07
606,227	0,07
606,575	0,2
606,924	0,02
607,272	-0,17
607,621	0,12
607,969	0,16
608,317	-0,03
608,665	-0,22
609,014	-0,07
609,362	0,02
609,71	0,07
610,058	-0,17
610,406	0,17
610,754	0,12
611,102	0,07
611,45	-0,13
611,798	0,02
612,145	-0,43
612,493	-0,08
612,841	-0,08
613,189	-0,13
613,536	0,33
613,884	0,18
614,231	0,13
614,579	0,44
614,926	0,34
615,274	-0,08
615,621	-0,03
615,968	-0,29
616,316	-0,25
616,663	0,08
617,01	-0,19
617,357	-0,53
617,704	0,24
618,051	-0,14
618,398	-0,31
618,745	0,08
619,092	-0,31
619,439	0,03
619,786	-0,15
620,133	-0,38
620,48	-0,21
620,826	-0,03
621,173	-0,03
621,52	-0,15
621,866	-0,03
622,213	0,15
622,559	0,03
622,906	0,21
623,252	0,09
623,599	-0,4
623,945	0,15
624,291	0,33
624,638	0,22
624,984	0,03
625,33	0,16
625,676	-0,1
626,022	-0,23
626,368	0,23
626,714	-0,17
627,06	-0,04
627,406	0,23
627,752	0,17
628,098	0,03
628,443	0,17
628,789	-0,04
629,135	0,38
629,48	-0,32
629,826	0,32
630,171	-0,11
630,517	-0,11
630,862	-0,47
631,208	-0,33
631,553	-0,12
631,898	0,18
632,244	-0,04
632,589	-0,74
632,934	0,42
633,279	-0,04
633,624	-0,04
633,97	-0,04
634,315	0,12
634,659	-0,04
635,004	0,2
635,349	-0,54
635,694	0,2
636,039	-0,45
636,384	-0,37
636,728	0,2
637,073	-0,22
637,418	0,47
637,762	-0,22
638,107	0,21
638,451	-0,13
638,796	0,04
639,14	0,22
639,484	-0,23
639,829	-0,23
640,173	0,49
640,517	0,23
640,861	0,5
641,206	0,42
641,55	0,24
641,894	-0,05
642,238	0,63
642,582	0,04
642,926	0,34
643,269	0,45
643,613	0,05
643,957	-0,66
644,301	0,25
644,645	0,05
644,988	0,57
645,332	0,05
645,675	-0,27
646,019	0,05
646,362	-0,27
646,706	-0,38
647,049	-0,18
647,392	-0,85
647,736	0,5
648,079	0,28
648,422	-0,3
648,765	-0,06
649,108	0,05
649,452	0,3
649,795	-0,67
650,138	0,54
650,48	0,05
650,823	-0,32
651,166	0,91
651,509	0,82
651,852	0,68
652,195	0,06
652,537	-0,34
652,88	-0,07
653,222	-0,34
653,565	-0,21
653,907	-0,49
654,25	0,2
654,592	-0,08
654,935	0,06
655,277	-0,5
655,619	1,06
655,961	-0,08
656,304	0,66
656,646	-0,84
656,988	-0,86
657,33	-0,38
657,672	-0,24
658,014	-0,24
658,356	1,16
658,698	-0,25
659,039	0,72
659,381	-0,91
659,723	0,9
660,065	0,74
660,406	-1,6
660,748	-0,44
661,089	0,43
661,431	0,08
661,772	-0,63
662,114	-0,46
662,455	-0,64
662,797	1,36
663,138	0,66
663,479	0,48
663,82	0,27
664,161	-1,12
664,503	0,88
664,844	-1,72
665,185	0,7
665,526	0,29
665,867	0,71
666,207	0,3
666,548	0,3
666,889	0,97
667,23	0,75
667,57	0,31
667,911	0,32
668,252	0,76
668,592	1,45
668,933	1,52
669,273	0,34
669,614	-0,85
669,954	-2,32
670,294	-0,63
670,635	0,83
670,975	-0,38
671,315	0,63
671,655	-0,93
671,995	-0,93
672,336	0,39
672,676	-1,22
673,016	1,72
673,355	1,22
673,695	-2,16
674,035	0,4
674,375	-0,74
674,715	-0,75
675,054	1,59
675,394	-1,66
675,734	-0,17
676,073	-0,48
676,413	-0,17
676,752	0,47
677,092	-1,18
677,431	-1,84
677,77	-1,17
678,11	-0,51
678,449	2,51
678,788	-1,19
679,127	1,22
679,467	1,2
679,806	0,86
680,145	-1,71
680,484	-3,26
680,823	-0,59
681,161	0,9
681,5	1,27
681,839	-0,99
682,178	-0,23
682,517	0,58
682,855	0,17
683,194	2,23
683,532	-1,04
683,871	1,4
684,209	1,01
684,548	-2,86
684,886	-1,08
685,225	-2,09
685,563	-2,1
685,901	0,2
686,239	0,2
686,578	1,72
686,916	3,78
687,254	-0,27
687,592	0,22
687,93	2,77
688,268	2,29
688,606	1,27
688,943	0,75
689,281	-2,43
689,619	-0,29
689,957	-5,04
690,294	3,28
690,632	2,37
690,969	3,09
691,307	2,42
691,644	-2,55
691,982	-3,76
692,319	-0,94
692,657	0,28
692,994	1,5
693,331	4,27
693,668	1,5
694,006	2,29
694,343	3,57
694,68	-0,38
695,017	2,79
695,354	3,67
695,691	2,26
696,028	-1,79
696,364	-1,08
696,701	-1,03
697,038	-1,1
697,375	5,73
697,711	3,77
698,048	-2,68
698,384	5,81
698,721	-4,29
699,057	-6,27
699,394	0,35
699,73	4,14
700,066	3,49
700,403	-1,31
700,739	-1,24
701,075	7,84
701,411	-2,21
701,747	2,79
702,083	-0,51
702,419	-1,4
702,755	-1,53
703,091	6,18
703,427	9,46
703,763	-3,16
704,099	0,41
704,435	-10,61
704,77	6,35
705,106	7,93
705,441	-2,68
705,777	-1,45
706,113	-0,58
706,448	-1,58
706,783	0,47
707,119	0,47
707,454	1,5
707,789	5,47
708,125	-11,73
708,46	-5,21
708,795	-5,59
709,13	-7,78
709,465	6,16
709,8	7,05
710,135	-2,6
710,47	-2,89
710,805	0,53
711,139	7,91
711,474	6,45
711,809	4,18
712,144	3,24
712,478	-9,76
712,813	-7,78
713,147	-2,15
713,482	3,28
713,816	4,82
714,151	1,94
714,485	0,67
714,819	2,11
715,153	-0,78
715,488	-2,49
715,822	-9,72
716,156	0,58
716,49	-2,45
716,824	-2,45
717,158	-6,3
717,492	7,23
717,826	7,95
718,16	-5,88
718,493	-1
718,827	12,32
719,161	5,79
719,494	-4,69
719,828	9,85
720,161	2,86
720,495	-4,61
720,828	2,51
721,162	5,79
721,495	2,65
721,829	-2,71
722,162	8,81
722,495	6,57
722,828	2,92
723,161	0,88
723,494	-15,6
723,827	9,17
724,16	-5,5
724,493	-3,66
724,826	8,81
725,159	2,98
725,492	5,05
725,825	15,37
726,157	-12,79
726,49	0,94
726,823	11,87
727,155	5,76
727,488	-11,55
727,82	8,73
728,153	6,71
728,485	13,8
728,817	-3,58
729,15	8,96
729,482	3,96
729,814	3,96
730,146	11,27
730,478	4,74
730,81	7,93
731,142	6,71
731,474	13,7
731,806	-16,02
732,138	1,51
732,47	-1,77
732,801	-8,13
733,133	28,24
733,465	4,32
733,796	1,29
734,128	12,9
734,46	13,8
734,791	-8,39
735,122	11,27
735,454	8,91
735,785	10,95
736,116	8,59
736,448	20,49
736,779	-13,14
737,11	-11,92
737,441	10,43
737,772	-12,5
738,103	-18,64
738,434	1,33
738,765	-5,47
739,096	15,09
739,427	11,7
739,758	18,18
740,088	1,9
740,419	-24,7
740,75	1,68
741,08	16,78
741,411	28,68
741,741	-2,72
742,072	-18,29
742,402	12,11
742,732	19,8
743,063	1,9
743,393	16,06
743,723	-19,43
744,053	10,89
744,383	-21,62
744,713	-16,58
745,043	-17,39
745,373	-16,55
745,703	-10,9
746,033	-11,39
746,363	-19,01
746,693	7,07
747,022	25,48
747,352	45,27
747,682	22,86
748,011	3,08
748,341	7,83
748,67	-27,06
749	9,35
749,329	17,47
749,659	-6,93
749,988	16,85
750,317	-13,14
750,646	-36,61
750,975	36,02
751,305	-12,5
751,634	-4,85
751,963	12,57
752,292	19,75
752,62	17,71
752,949	25,48
753,278	-77,63
753,607	39,19
753,936	-57,5
754,264	7,83
754,593	23,4
754,922	44,04
755,25	-10,77
755,579	-3,85
755,907	-4,85
756,235	-18,42
756,564	-69,41
756,892	8,28
757,22	-55,17
757,548	-48,24
757,877	-48,54
758,205	54,68
758,533	-39,66
758,861	-34,33
759,189	-3,85
759,517	12,62
759,844	52,63
760,172	4,26
760,5	27,03
760,828	28,95
761,155	3,88
761,483	15,29
761,811	-58,82
762,138	13,83
762,466	-30,26
762,793	23,85
763,12	25,88
763,448	23,4
763,775	21,36
764,102	-30,26
764,429	-20,9
764,757	-24,14
765,084	5,97
765,411	-5,88
765,738	32,98
766,065	-65,79
766,392	-13,59
766,718	-13,59
767,045	100
767,372	84,48
767,699	-37,65
768,025	36,47
768,352	145
768,678	-47,76
769,005	-74,19
769,331	-8,62
769,658	-125
769,984	30,77
770,31	-125
770,637	65,05
770,963	70,97
771,289	37,93
771,615	15,29
771,941	-24,14
772,267	10
772,593	68,24
772,919	-30,26
773,245	-12,5
773,571	47,93
773,897	-16,13
774,222	41,94
774,548	-18,42
774,874	-80
775,199	-35
775,525	-176,92
775,85	37,93
776,176	18,18
776,501	-65,31
776,827	-8,62
777,152	-80
777,477	115,52
777,802	-10,2
778,128	73,13
778,453	25,88
778,778	113,43
779,103	-10,2
779,428	-80
779,753	32,5
780,077	-104,55
780,402	-46,94
780,727	-17,39
781,052	222,73
781,376	59,09
781,701	18,18
782,026	51,79
782,35	-103,23
782,675	25,88
782,999	-70,69
783,323	10
783,648	80,85
783,972	140,91
784,296	222,73
784,62	89,41
784,944	22,41
785,269	-24,14
785,593	63,27
785,917	460
786,24	-74,19
786,564	-800
786,888	-45,16
787,212	63,27
787,536	-350
787,859	100
788,183	64
788,507	47,06
788,83	-176,92
789,154	238,46
789,477	10
789,8	-350
790,124	303,23
790,447	-221,43
790,77	-5,32
791,094	-800
791,417	-153,13
791,74	76,32
792,063	10
792,386	70,97
792,709	81,63
793,032	-440
793,355	156,25
793,677	12,9
794	42,55
794,323	280
794,645	357,14
794,968	-176,92
795,291	129,03
795,613	129,03
795,936	-12,5
796,258	100
796,58	129,03
796,903	47,06
797,225	73,79
797,547	-17,39
797,869	-63,64
798,191	178,26
798,513	-35
798,836	-63,64
799,157	10
799,479	122,5
799,801	35,71
800,123	325
800,445	-440
800,767	100
801,088	100
801,41	181,82
801,731	-39,66
802,053	26,53
802,374	-63,64
802,696	52,13
803,017	-38,46
803,339	-414,29
803,66	122,5
803,981	640
804,302	145
804,623	-38,46
804,944	10
805,265	36,47
805,586	84,48
805,907	-47,76
806,228	-107,69
806,549	81,63
806,87	-12,5
807,191	-57,5
807,511	268,75
807,832	26,53
808,152	-620
808,473	12,9
808,793	100
809,114	263,64
809,434	181,82
809,755	100
810,075	-40,63
810,395	217,39
810,715	-28,57
811,035	118,37
811,355	-9,76
811,676	68,97
811,995	37,93
812,315	-9,76
812,635	64,47
812,955	178,26
813,275	129,03
813,595	100
813,914	-107,69
814,234	-12,5
814,554	-176,92
814,873	128,13
815,193	-10,2
815,512	216,13
815,831	71,87
816,151	100
816,47	167,5
816,789	100
817,108	53,45
817,428	64,94
817,747	100
818,066	-80
818,385	55
818,704	41,94
819,022	8,16
819,341	-62
819,66	82
819,979	-440
820,298	-80
820,616	-12,5
820,935	59,7
821,253	100
821,572	26,53
821,89	86,57
822,209	30,77
822,527	12,9
822,845	-176,92
823,163	550
823,482	63,27
823,8	10
824,118	-34,33
824,436	52,63
824,754	60,87
825,072	325
825,39	-44
825,707	357,14
826,025	-315,38
826,343	-125
826,661	18,18
826,978	-80
827,296	-350
827,613	-16,13
827,931	35,71
828,248	-22,73
828,566	228,57
828,883	61,7
829,2	169,23
829,517	640
829,835	18,18
830,152	140,91
830,469	-12,5
830,786	5,97
831,103	54,24
831,42	1360
831,737	12,9
832,053	-104,55
832,37	-68,75
832,687	181,82
833,004	25,88
833,32	37,93
833,637	100
833,953	640
834,27	100
834,586	-6,58
834,903	71,87
835,219	44,9
835,535	46
835,851	30,77
836,168	-57,5
836,484	-800
836,8	292,86
837,116	-350
837,432	100
837,748	-95,65
838,063	-800
838,379	-17,39
838,695	156,25
839,011	-145,45
839,326	10
839,642	-63,64
839,958	100
840,273	-132,26
840,589	12,2
840,904	44,9
841,219	256,52
841,535	88,16
841,85	10
842,165	18,18
842,48	-57,5
842,795	46
843,11	100
843,425	17,11
843,74	-800
844,055	18,18
844,37	167,5
844,685	100
845	-453,85
845,314	181,82
845,629	44,9
845,944	820
846,258	550
846,573	84,48
846,887	-7,46
847,201	73,79
847,516	158,06
847,83	-22,73
848,144	140,91
848,458	10
848,773	32,5
849,087	169,23
849,401	775
849,715	68,97
850,029	190
850,342	35,71
850,656	280
850,97	30,1
851,284	-246,15
851,597	100
851,911	55
852,225	35,71
852,538	53,45
852,852	59,09
853,165	-28,57
853,478	147,37
853,792	238,46
854,105	15,29
854,418	8,16
854,731	55,37
855,044	100
855,357	32,84
855,67	10
855,983	68,97
856,296	58,46
856,609	-34,33
856,922	-88,06
857,235	-440
857,547	63,27
857,86	-5,32
858,173	78,82
858,485	-10,2
858,798	73,13
859,11	-575
859,423	-80
859,735	32,84
860,047	-453,85
860,359	-246,15
860,672	-6,58
860,984	32,5
861,296	55
861,608	-22,33
861,92	5,97
862,232	44,9
862,544	-22,33
862,855	12,9
863,167	-138,78
863,479	-147,5
863,791	21,36
864,102	5,97
864,414	5,97
864,725	-65,31
865,037	4,71
865,348	-24,14
865,659	-27,06
865,971	-4,85
866,282	4,71
866,593	5,97
866,904	-80
867,215	8,16
867,527	57,43
867,838	-101,32
868,148	-157,14
868,459	55
868,77	32,84
869,081	21,36
869,392	25,88
869,702	53,45
870,013	-107,69
870,324	-39,66
870,634	9,35
870,945	53,45
871,255	44,62
871,565	-53,95
871,876	10,74
872,186	56,31
872,496	5,97
872,806	-37,65
873,116	-48,24
873,427	19,4
873,737	-14,65
874,047	88,16
874,356	30,1
874,666	-4,13
874,976	-147,5
875,286	-4,85
875,596	17,71
875,905	16,92
876,215	-27,06
876,524	-132,26
876,834	-14,89
877,143	-13,59
877,453	-3,85
877,762	-53,19
878,071	-13,59
878,38	90,43
878,69	40,5
878,999	23,4
879,308	-114,93
879,617	33,06
879,926	5,97
880,235	23,4
880,544	23,85
880,852	-4,85
881,161	-36,61
881,47	22,41
881,779	-10,77
882,087	10
882,396	-4,85
882,704	2,29
883,013	14,86
883,321	-101,72
883,629	-22,33
883,938	-5,88
884,246	8,28
884,554	25,88
884,862	5,26
885,17	4,71
885,478	25,62
885,786	12,62
886,094	-86,21
886,402	32,98
886,71	15,83
887,018	12,62
887,325	37,93
887,633	41,73
887,941	-70,69
888,248	15,83
888,556	-8,62
888,863	295,65
889,171	73,13
889,478	-8,62
889,785	19,4
890,092	59,82
890,4	140,91
890,707	59,7
891,014	-132,76
891,321	-5,32
891,628	41,94
891,935	13,83
892,242	-7,46
892,548	-120,41
892,855	614,29
893,162	-16,47
893,469	3,57
893,775	-8,62
894,082	228,57
894,388	-575
894,695	-74,19
895,001	100
895,307	187,1
895,614	46,27
895,92	-8,62
896,226	18,18
896,532	-107,69
896,838	6,9
897,144	-145,45
897,45	-12,5
897,756	25,88
898,062	-315,38
898,368	37,93
898,674	-125
898,98	26,53
899,285	-102,5
899,591	6,9
899,896	44,9
900,202	100
900,507	-132,26
900,813	100
901,118	-74,63
901,423	-35
901,729	-30,26
902,034	640
902,339	19,64
902,644	77,5
902,949	-22,73
903,254	59,09
903,559	-12,5
903,864	64
904,169	100
904,473	-246,15
904,778	26,53
905,083	-18,42
905,387	53,45
905,692	-28,57
905,996	307,69
906,301	-80
906,605	34,15
906,909	-74,19
907,214	-45,16
907,518	90,43
907,822	-8,62
908,126	52,13
908,43	325
908,734	-107,69
909,038	46
909,342	37,93
909,646	-57,5
909,95	100
910,254	8,47
910,557	35,71
910,861	-157,14
911,165	-107,69
911,468	81,63
911,772	-56,52
912,075	100
912,378	121,95
912,682	-147,5
912,985	25,88
913,288	100
913,591	143,9
913,894	1360
914,198	-22,73
914,501	-68,75
914,804	100
915,106	164,29
915,409	460
915,712	10
916,015	191,84
916,317	357,14
916,62	23,73
916,923	-22,73
917,225	70,97
917,528	100
917,83	-12,5
918,132	78,05
918,435	460
918,737	-260
919,039	209,76
919,341	100
919,643	-6,58
919,945	100
920,247	100
920,549	-125
920,851	14,74
921,153	52,63
921,455	26,53
921,757	1000
922,058	100
922,36	100
922,661	-176,92
922,963	35,71
923,264	-161,29
923,566	63,27
923,867	446,15
924,168	41,94
924,47	-350
924,771	304,55
925,072	-107,69
925,373	46
925,674	-92,86
925,975	84,48
926,276	8,16
926,577	12,9
926,878	141,86
927,178	376,92
927,479	-53,66
927,78	19,4
928,08	1000
928,381	280
928,681	77,5
928,982	111,84
929,282	-63,64
929,582	1180
929,883	-104,55
930,183	100
930,483	77,5
930,783	-384,62
931,083	-10,2
931,383	59,09
931,683	12,9
931,983	325
932,283	100
932,583	-22,73
932,882	263,64
933,182	100
933,482	82
933,781	78,05
934,081	100
934,38	128,13
934,68	-575
934,979	169,23
935,278	28
935,577	-31,71
935,877	100
936,176	178,26
936,475	-28,57
936,774	178,26
937,073	-103,23
937,372	228,57
937,671	135,53
937,969	8,16
938,268	-80
938,567	-176,92
938,865	70,97
939,164	280
939,463	723,08
939,761	78,05
940,059	460
940,358	18,18
940,656	86,57
940,954	-26
941,253	178,26
941,551	238,46
941,849	-800
942,147	100
942,445	-260
942,743	100
943,041	460
943,339	145
943,636	70,97
943,934	-22,73
944,232	-17,39
944,529	-80
944,827	-107,69
945,124	-38,46
945,422	280
945,719	71,87
946,016	71,87
946,314	35,71
946,611	-350
946,908	118
947,205	-103,23
947,502	35,71
947,799	164,29
948,096	-350
948,393	-107,69
948,69	-9,76
948,987	100
949,284	12,9
949,58	-260
949,877	413,04
950,173	59,7
950,47	238,46
950,766	-80
951,063	-17,39
951,359	156,25
951,655	-38,46
951,952	18,18
952,248	240,63
952,544	23,73
952,84	295,65
953,136	158,06
953,432	187,1
953,728	28
954,024	128,13
954,32	55
954,615	-38,46
954,911	143,9
955,207	70,97
955,502	88,16
955,798	181,82
956,093	55
956,389	139,13
956,684	129,03
956,979	59,7
957,275	63,27
957,57	-145,45
957,865	41,94
958,16	100
958,455	156,25
958,75	77,5
959,045	-980
959,34	100
959,635	-1025
959,929	-384,62
960,224	140,91
960,519	10
960,813	-125
961,108	71,87
961,402	-350
961,697	128,13
961,991	100
962,286	73,13
962,58	187,1
962,874	43,75
963,168	35,71
963,462	-575
963,756	-575
964,05	100
964,344	60,87
964,638	-80
964,932	-46,94
965,226	181,82
965,519	46
965,813	8,16
966,107	100
966,4	21,74
966,694	100
966,987	-1025
967,281	235
967,574	18,18
967,867	35,71
968,16	34,15
968,453	-107,69
968,747	2125
969,04	-17,39
969,333	173,47
969,626	100
969,918	-575
970,211	1000
970,504	-17,39
970,797	73,13
971,089	-440
971,382	-107,69
971,675	-12,5
971,967	-384,62
972,259	178,26
972,552	792,31
972,844	100
973,136	640
973,429	118,37
973,721	446,15
974,013	-8
974,305	187,8
974,597	-9,76
974,889	18,18
975,181	820
975,473	-35
975,764	-1250
976,056	100
976,348	82
976,639	59,09
976,931	128,13
977,222	139,13
977,514	-38,46
977,805	-350
978,096	325
978,388	325
978,679	325
978,97	640
979,261	-440
979,552	-74,19
979,843	100
980,134	64
980,425	-19,12
980,716	12,9
981,007	295,65
981,297	34,15
981,588	325
981,879	7,35
982,169	154
982,46	41,94
982,75	-107,69
983,04	-260
983,331	-440
983,621	155,1
983,911	111,69
984,201	60,87
984,491	12,9
984,781	178,26
985,071	52,63
985,361	140,91
985,651	169,23
985,941	-800
986,231	357,14
986,521	6,9
986,81	18,18
987,1	-575
987,389	-40,63
987,679	-38,46
987,968	71,87
988,258	-52,54
988,547	41,56
988,836	18,18
989,125	15,62
989,414	640
989,704	36,47
989,993	-103,23
990,282	139,13
990,57	212,5
990,859	59,09
991,148	280
991,437	187,8
991,726	-92,86
992,014	295,65
992,303	30,77
992,591	70,97
992,88	775
993,168	181,82
993,456	-17,39
993,745	228,57
994,033	460
994,321	32,5
994,609	-1025
994,897	167,5
995,185	-12,5
995,473	485,71
995,761	280
996,049	-37,29
996,337	-80
996,625	121,95
996,912	-26
997,2	86,76
997,487	122,5
997,775	140,91
998,062	1225
998,35	100
998,637	-95,65
998,924	100
999,212	-28,57
999,499	-125
999,786	109,57
1000,073	34,15
1000,36	71,87
1000,647	-1700
1000,934	164,29
1001,221	56,1
1001,507	34,15
1001,794	1000
1002,081	100
1002,367	43,75
1002,654	-176,92
1002,94	30,77
1003,227	-65,31
1003,513	-1250
1003,8	139,13
1004,086	222,73
1004,372	100
1004,658	77,5
1004,944	41,94
1005,23	8,47
1005,516	-74,19
1005,802	820
1006,088	100
1006,374	-28,57
1006,66	-252,17
1006,945	156,25
1007,231	550
1007,516	100
1007,802	-22,73
1008,087	136,73
1008,373	-92,86
1008,658	12,9
1008,944	140,91
1009,229	775
1009,514	-12,5
1009,799	-92,86
1010,084	460
1010,369	-125
1010,654	-19,12
1010,939	-260
1011,224	-246,15
1011,509	-980
1011,793	100
1012,078	47,67
1012,363	-134,78
1012,647	167,5
1012,932	41,94
1013,216	-620
1013,5	41,94
1013,785	100
1014,069	115,52
1014,353	-1160
1014,637	6,9
1014,922	118
1015,206	-92,86
1015,49	-17,39
1015,773	-7,46
1016,057	-9,76
1016,341	217,39
1016,625	-103,23
1016,909	12,2
1017,192	245,16
1017,476	28
1017,759	32,5
1018,043	-478,57
1018,326	59,09
1018,61	-74,19
1018,893	263,64
1019,176	-68,75
1019,459	56,1
1019,742	69,49
1020,025	21,74
1020,308	78,05
1020,591	515,38
1020,874	-40,63
1021,157	8,16
1021,44	100
1021,723	187,1
1022,005	77,5
1022,288	70,97
