Data from Transmission_11-07-35-468.txt Node
Date: Fri Aug 02 11:07:35 EDT 2019
User: maxen
Spectrometer: USB2G16502
Scans to average: 1
Trigger mode: 4
Integration Time (sec): 1,000000E-1
Electric dark correction enabled: true
Boxcar width: 0
XAxis mode: Wavelengths
Number of Pixels in Spectrum: 2048
>>>>>Begin Spectral Data<<<<<
339,156	-880
339,534	92
339,911	-25
340,288	-25
340,665	-1420
341,042	1100
341,419	-25
341,796	-107,32
342,173	108,16
342,55	875
342,927	269,23
343,304	90,24
343,68	-331,82
344,057	278,26
344,434	-25
344,811	71,43
345,187	-925
345,564	132,5
345,941	875
346,317	560
346,694	-57,14
347,07	615,38
347,447	31,25
347,823	83,87
348,199	-185,71
348,576	1325
348,952	44,83
349,328	122,41
349,705	177,5
350,081	-146,15
350,457	25,81
350,833	115,62
351,209	24,39
351,585	53,06
351,961	57,89
352,337	920
352,713	-119,35
353,089	-700
353,465	-152,17
353,841	-73,91
354,217	-7,69
354,593	1100
354,968	-284,62
355,344	264,29
355,72	130,77
356,095	264,29
356,471	-34,78
356,847	328,57
357,222	-1,72
357,598	13,79
357,973	1460
358,349	1550
358,724	425
359,099	65,67
359,475	43,48
359,85	269,23
360,225	132,5
360,6	392,86
360,976	-1,49
361,351	153,45
361,726	159,09
362,101	-1150
362,476	9,41
362,851	-475
363,226	93,42
363,601	92
363,976	110
364,351	200
364,726	141,94
365,1	264,29
365,475	-925
365,85	-475
366,225	-250
366,599	-880
366,974	-7,69
367,348	-475
367,723	-1,49
368,097	650
368,472	10,53
368,846	38,95
369,221	-53,13
369,595	54,84
369,969	43,48
370,344	-113,04
370,718	75,86
371,092	54,84
371,466	118,18
371,841	159,09
372,215	135,71
372,589	83,87
372,963	42,5
373,337	29,31
373,711	54,84
374,085	-2,5
374,459	-25
374,832	650
375,206	171,87
375,58	-4,55
375,954	20
376,327	115,62
376,701	-284,62
377,075	-57,14
377,448	1,3
377,822	3,12
378,195	200
378,569	90,24
378,942	59,37
379,316	170,97
379,689	-340
380,063	-250
380,436	-73,91
380,809	25,81
381,182	-185,71
381,556	-700
381,929	-17,24
382,302	-2,5
382,675	118,18
383,048	56
383,421	146,27
383,794	-340
384,167	121,74
384,54	546,15
384,913	65,67
385,286	-3,23
385,659	-230,43
386,031	-75,51
386,404	110
386,777	-53,13
387,149	200
387,522	380
387,895	-61,29
388,267	-2,04
388,64	200
389,012	57,89
389,385	121,74
389,757	-86,36
390,129	-340
390,502	322,73
390,874	-148,39
391,246	338,46
391,619	34,69
391,991	425
392,363	1100
392,735	29,31
393,107	-209,09
393,479	-70
393,851	-209,09
394,223	-520
394,595	-22,35
394,967	-1,72
395,339	-20,41
395,711	-25
396,082	-215,38
396,454	7,14
396,826	-146,15
397,198	-475
397,569	8,51
397,941	-2,04
398,312	-36,84
398,684	16,33
399,055	29,31
399,427	-93,88
399,798	16,33
400,17	-68,09
400,541	13,79
400,912	-0,83
401,284	-1,72
401,655	31,25
402,026	27,46
402,397	-0,68
402,768	21,08
403,139	-0,6
403,51	45,22
403,881	7,42
404,252	11,82
404,623	13,67
404,994	-0,52
405,365	-0,5
405,736	22,63
406,107	-6,71
406,477	13,55
406,848	7,93
407,219	8,95
407,59	-9,05
407,96	-6,17
408,331	-8,85
408,701	8,98
409,072	7,56
409,442	3,13
409,813	3,18
410,183	-5,92
410,553	6,15
410,924	4,16
411,294	0,99
411,664	-5,47
412,034	-0,12
412,405	0,88
412,775	2,48
413,145	-4,35
413,515	5,28
413,885	-3,06
414,255	-1,49
414,625	-0,07
414,995	1,21
415,364	-0,64
415,734	2,02
416,104	1,46
416,474	-1,04
416,844	3,17
417,213	-2,76
417,583	-2,08
417,952	-0,81
418,322	1,74
418,692	-0,38
419,061	1,27
419,43	-0,03
419,8	-0,03
420,169	-1,41
420,539	1,05
420,908	-0,53
421,277	1,19
421,646	0,2
422,016	0,39
422,385	0,57
422,754	0,57
423,123	0,53
423,492	-0,19
423,861	0,49
424,23	-0,5
424,599	0,59
424,968	0,13
425,337	1,1
425,705	1,02
426,074	-0,14
426,443	-0,26
426,812	-0,24
427,18	-0,24
427,549	-0,78
427,918	0,6
428,286	0,38
428,655	0,73
429,023	-0,46
429,392	0,32
429,76	0,07
430,128	0,07
430,497	-0,01
430,865	-0,16
431,233	0,21
431,601	-0,08
431,97	-0,01
432,338	-0,28
432,706	-0,07
433,074	-0,32
433,442	0,3
433,81	0,24
434,178	-0,07
434,546	0,05
434,914	0,67
435,281	0,16
435,649	0,23
436,017	0,05
436,385	0,33
436,752	-0,01
437,12	0,23
437,488	0,22
437,855	0,51
438,223	0,11
438,59	0,24
438,958	0,3
439,325	-0,07
439,693	0,39
440,06	-0,21
440,427	0,48
440,794	0,14
441,162	0,29
441,529	0,22
441,896	0,15
442,263	0,65
442,63	-0,01
442,997	-0,18
443,364	0,46
443,731	0,28
444,098	0,71
444,465	-0,22
444,832	-0,01
445,199	0,1
445,566	-0,38
445,932	0,49
446,299	0,11
446,666	-0,54
447,032	0,25
447,399	-0,02
447,765	0,55
448,132	0,43
448,498	0,72
448,865	0,13
449,231	0,3
449,597	-0,02
449,964	-1,32
450,33	0,49
450,696	0,47
451,063	-0,69
451,429	0,86
451,795	1,03
452,161	-0,37
452,527	1,06
452,893	-0,39
453,259	-0,02
453,625	1,24
453,991	1,66
454,357	1,36
454,722	-0,62
455,088	0,37
455,454	0,6
455,82	1,83
456,185	1,89
456,551	1,93
456,916	1,3
457,282	2,66
457,648	4,07
458,013	6,52
458,378	11,81
458,744	12,09
459,109	16,07
459,474	21,2
459,84	23,31
460,205	29,56
460,57	29,96
460,935	35,89
461,3	41,04
461,666	48,23
462,031	50,17
462,396	54,76
462,761	60,9
463,126	64,78
463,49	67,67
463,855	73,39
464,22	77,48
464,585	84,08
464,95	87,53
465,314	86,31
465,679	87,71
466,044	88,5
466,408	95,89
466,773	91,61
467,137	95,38
467,502	96,2
467,866	93,62
468,23	96,85
468,595	91,97
468,959	92,64
469,323	97,23
469,688	94,68
470,052	95,11
470,416	92,88
470,78	95,41
471,144	94,15
471,508	98,81
471,872	94,19
472,236	96,32
472,6	89,69
472,964	93,73
473,328	93,39
473,692	99,12
474,055	94,25
474,419	94,87
474,783	95,69
475,146	91,78
475,51	92,9
475,874	93,86
476,237	95,99
476,601	95,03
476,964	94,38
477,327	95,61
477,691	93,04
478,054	94,43
478,417	97,33
478,781	92,6
479,144	94,8
479,507	93,4
479,87	92,8
480,233	93,93
480,596	95,17
480,959	92,95
481,322	92,11
481,685	90,26
482,048	88,37
482,411	85,48
482,774	82,19
483,137	79,01
483,499	73,63
483,862	68,79
484,225	64,4
484,588	59,57
484,95	54,55
485,313	50,41
485,675	47,23
486,038	43
486,4	38,85
486,762	35,99
487,125	32,06
487,487	27,14
487,849	23,44
488,212	19,09
488,574	15,95
488,936	12,04
489,298	9
489,66	6,53
490,022	4,1
490,384	1,58
490,746	0,32
491,108	0,51
491,47	0,19
491,832	-0,26
492,194	-0,01
492,555	-0,13
492,917	0,06
493,279	0,3
493,64	-0,25
494,002	0,05
494,364	0,05
494,725	0,23
495,087	0,17
495,448	-0,12
495,809	0,05
496,171	0,22
496,532	0,45
496,893	0,5
497,255	0,11
497,616	0,16
497,977	0,05
498,338	-0,18
498,699	-0,28
499,06	0,16
499,421	-0,06
499,782	-0,23
500,143	-0,17
500,504	0,05
500,865	-0,06
501,226	0,21
501,586	0,21
501,947	-0,11
502,308	-0,22
502,669	-0,11
503,029	-0,06
503,39	0,05
503,75	-0,06
504,111	0,15
504,471	-0,06
504,832	-0,06
505,192	-0,06
505,552	0,32
505,913	-0,06
506,273	0,47
506,633	0,36
506,993	0,41
507,353	0,31
507,713	0,1
508,073	0,1
508,433	-0,22
508,793	-0,27
509,153	0,26
509,513	0,05
509,873	-0,27
510,233	0,46
510,593	-0,06
510,952	0,15
511,312	0,1
511,672	-0,06
512,031	0,26
512,391	0,52
512,75	-0,11
513,11	0,15
513,469	-0,16
513,829	-0,11
514,188	-0,11
514,548	0,15
514,907	0,31
515,266	0,1
515,625	0,25
515,984	0,2
516,344	0,05
516,703	-0,53
517,062	0,1
517,421	0,25
517,78	-0,01
518,139	0,15
518,497	-0,11
518,856	0,05
519,215	-0,11
519,574	-0,11
519,933	0,05
520,291	-0,06
520,65	-0,37
521,009	0,2
521,367	-0,11
521,726	0,31
522,084	-0,11
522,443	-0,41
522,801	0,05
523,159	0,2
523,518	-0,01
523,876	0,35
524,234	-0,11
524,592	-0,01
524,95	-0,26
525,309	0,5
525,667	0,25
526,025	-0,11
526,383	0,2
526,741	-0,15
527,099	0,58
527,456	-0,1
527,814	-0,11
528,172	-0,11
528,53	0,14
528,887	-0,05
529,245	0,09
529,603	-0,2
529,96	0,09
530,318	0,34
530,675	0,04
531,033	-0,25
531,39	-0,01
531,748	0,29
532,105	0,33
532,462	-0,01
532,82	-0,05
533,177	0,23
533,534	0,38
533,891	0,04
534,248	0,04
534,605	0,23
534,962	0,23
535,319	-0,24
535,676	-0,1
536,033	0,32
536,39	0,23
536,747	-0,01
537,104	-0,01
537,46	0,18
537,817	0,04
538,174	0,37
538,53	0,04
538,887	0,04
539,243	0,04
539,6	-0,23
539,956	0,04
540,313	0,31
540,669	0,35
541,025	0,27
541,382	-0,05
541,738	0,26
542,094	-0,01
542,45	0,04
542,806	-0
543,162	0,35
543,518	0,04
543,874	0,22
544,23	-0
544,586	0,08
544,942	-0,14
545,298	0,17
545,654	0,31
546,009	0,08
546,365	-0,14
546,721	-0
547,076	0,08
547,432	-0,14
547,788	0,47
548,143	-0
548,499	-0,05
548,854	-0,14
549,209	0,08
549,565	0,25
549,92	-0,26
550,275	0,08
550,63	-0
550,986	0,26
551,341	-0,05
551,696	0,21
552,051	0,21
552,406	0,04
552,761	0,04
553,116	0,08
553,471	-0,13
553,825	-0,05
554,18	-0,31
554,535	0,25
554,89	0,04
555,244	0,17
555,599	0,12
555,954	0,04
556,308	-0,22
556,663	-0
557,017	-0,18
557,371	-0,18
557,726	0,3
558,08	-0,4
558,435	-0,09
558,789	0,25
559,143	-0
559,497	-0
559,851	0,21
560,205	-0,14
560,559	-0,14
560,913	-0,09
561,267	-0,31
561,621	0,25
561,975	0,17
562,329	-0
562,683	0,04
563,037	-0,26
563,39	-0,14
563,744	-0,22
564,098	-0
564,451	0,17
564,805	0,08
565,158	-0,05
565,512	0,3
565,865	0,25
566,218	0,08
566,572	0,08
566,925	0,08
567,278	0,08
567,632	-0,39
567,985	-0,31
568,338	-0,39
568,691	-0
569,044	0,25
569,397	0,25
569,75	-0,17
570,103	0,25
570,456	0,04
570,809	0,08
571,161	0,08
571,514	-0,18
571,867	0,08
572,22	-0,05
572,572	0,17
572,925	0,29
573,277	-0,26
573,63	0,04
573,982	0,04
574,335	0,08
574,687	-0
575,039	0,38
575,392	0,08
575,744	-0
576,096	0,25
576,448	0,04
576,8	0,12
577,152	-0,09
577,504	-0
577,856	-0,13
578,208	-0,05
578,56	0,08
578,912	-0
579,264	-0
579,616	0,42
579,968	0,08
580,319	0,04
580,671	0,25
581,022	-0,05
581,374	0,2
581,726	0,16
582,077	-0,09
582,429	-0,21
582,78	0,24
583,131	0,12
583,483	-0,13
583,834	-0,05
584,185	-0,25
584,536	-0,05
584,887	-0
585,239	0,08
585,59	0,24
585,941	0,12
586,292	-0,25
586,643	0,37
586,993	-0,17
587,344	0,16
587,695	-0,09
588,046	-0
588,397	0,08
588,747	-0,25
589,098	0,04
589,448	-0
589,799	-0,17
590,15	0,33
590,5	-0,05
590,85	-0
591,201	-0,09
591,551	0,04
591,901	0,12
592,252	-0,05
592,602	0,25
592,952	-0,09
593,302	0,12
593,652	0,21
594,002	0,04
594,352	0,2
594,702	0,04
595,052	-0
595,402	0,04
595,752	0,08
596,102	0,04
596,451	0,12
596,801	-0,13
597,151	-0,09
597,5	0,12
597,85	0,12
598,199	0,08
598,549	-0
598,898	0,04
599,248	0,21
599,597	0,17
599,946	0,12
600,296	0,21
600,645	-0,22
600,994	-0,18
601,343	0,35
601,692	-0,14
602,041	0,17
602,39	-0,18
602,739	-0,14
603,088	-0,14
603,437	0,17
603,786	0,17
604,135	0,04
604,484	-0,05
604,832	0,31
605,181	-0,01
605,53	-0,14
605,878	-0,01
606,227	0,04
606,575	-0,05
606,924	0,09
607,272	-0,19
607,621	-0,05
607,969	-0,01
608,317	0,04
608,665	-0,01
609,014	0,04
609,362	0,09
609,71	-0,01
610,058	-0,2
610,406	-0,15
610,754	-0,05
611,102	0,09
611,45	-0,01
611,798	-0,11
612,145	0,09
612,493	0,1
612,841	0,04
613,189	-0,01
613,536	-0,06
613,884	0,2
614,231	0,26
614,579	0,15
614,926	-0,01
615,274	-0,06
615,621	-0,06
615,968	-0,11
616,316	-0,22
616,663	-0,17
617,01	0,1
617,357	-0,06
617,704	-0,01
618,051	0,05
618,398	-0,29
618,745	-0,12
619,092	-0,17
619,439	-0,01
619,786	-0,06
620,133	-0,24
620,48	-0,12
620,826	0,05
621,173	0,11
621,52	0,41
621,866	0,17
622,213	0,11
622,559	-0,19
622,906	0,12
623,252	-0,01
623,599	-0,44
623,945	0,06
624,291	-0,01
624,638	0,12
624,984	0,18
625,33	-0,2
625,676	-0,07
626,022	0,12
626,368	0,12
626,714	-0,14
627,06	-0,21
627,406	-0,14
627,752	-0,08
628,098	0,26
628,443	-0,28
628,789	-0,01
629,135	-0,22
629,48	-0,36
629,826	0,06
630,171	-0,22
630,517	-0,3
630,862	-0,44
631,208	-0,23
631,553	0,29
631,898	0,36
632,244	0,14
632,589	-0,32
632,934	-0,16
633,279	-0,09
633,624	0,07
633,97	0,15
634,315	-0,25
634,659	0,15
635,004	-0,34
635,349	-0,58
635,694	0,32
636,039	0,07
636,384	0,15
636,728	-0,09
637,073	-0,44
637,418	0,51
637,762	-0,18
638,107	-0,1
638,451	0,51
638,796	0,34
639,14	0,34
639,484	-0,01
639,829	-0,19
640,173	0,81
640,517	0,36
640,861	0,27
641,206	0,27
641,55	-0,11
641,894	0,09
642,238	0,18
642,582	-0,01
642,926	-0,01
643,269	0,09
643,613	-0,01
643,957	-0,21
644,301	0,8
644,645	-0,54
644,988	0,82
645,332	0,2
645,675	0,2
646,019	-0,75
646,362	0,31
646,706	0,31
647,049	-0,36
647,392	0,1
647,736	0,55
648,079	1,01
648,422	-0,6
648,765	-0,13
649,108	-0,37
649,452	0,11
649,795	-0,5
650,138	0,35
650,48	0,11
650,823	0,36
651,166	0,35
651,509	0,37
651,852	0,61
652,195	0,12
652,537	-0,41
652,88	-0,55
653,222	0,38
653,565	0,12
653,907	0,12
654,25	0,4
654,592	0,26
654,935	-0,43
655,277	-0,16
655,619	0,84
655,961	0,13
656,304	0,43
656,646	-0,02
656,988	-0,63
657,33	0,13
657,672	-0,8
658,014	-0,49
658,356	-0,64
658,698	0,3
659,039	1,44
659,381	-0,02
659,723	0,48
660,065	-0,69
660,406	-0,69
660,748	-1,06
661,089	0,85
661,431	0,5
661,772	-0,2
662,114	-0,02
662,455	-0,92
662,797	1,26
663,138	0,36
663,479	-0,02
663,82	0,55
664,161	-1,43
664,503	1,76
664,844	-0,63
665,185	0,99
665,526	0,18
665,867	2,05
666,207	0,8
666,548	0,6
666,889	-0,02
667,23	0,19
667,57	0,19
667,911	-0,25
668,252	1,3
668,592	-0,02
668,933	1,86
669,273	0,44
669,614	-0,5
669,954	-1,24
670,294	0,47
670,635	0,46
670,975	0,71
671,315	1,26
671,655	-1,07
671,995	-0,03
672,336	-1,39
672,676	-0,3
673,016	1,04
673,355	0,79
673,695	1,11
674,035	0,81
674,375	0,26
674,715	-0,91
675,054	0,84
675,394	-0,63
675,734	1,48
676,073	0,27
676,413	-0,34
676,752	-1,66
677,092	-0,7
677,431	-2,36
677,77	-2,34
678,11	0,96
678,449	0,3
678,788	-0,04
679,127	0,31
679,467	2,75
679,806	1,01
680,145	-2,29
680,484	-3,47
680,823	-4,19
681,161	-1,15
681,5	-0,41
681,839	-0,82
682,178	-0,45
682,517	-0,04
682,855	-1,22
683,194	2,82
683,532	1,58
683,871	1,18
684,209	-0,46
684,548	-0,05
684,886	1,22
685,225	-2,8
685,563	-1,9
685,901	-2,32
686,239	1,33
686,578	-3,55
686,916	0,85
687,254	-0,54
687,592	-2,02
687,93	-1,07
688,268	3,54
688,606	2,02
688,943	-1,09
689,281	-1,66
689,619	0,97
689,957	-0,59
690,294	4,52
690,632	-0,59
690,969	-0,63
691,307	1,03
691,644	-1,74
691,982	-0,06
692,319	-1,28
692,657	-1,31
692,994	2,39
693,331	4,52
693,668	-0,07
694,006	2,58
694,343	2,55
694,68	-2,79
695,017	1,81
695,354	-0,07
695,691	-1,38
696,028	4,13
696,364	-0,08
696,701	-0,07
697,038	-0,79
697,375	5,35
697,711	0,62
698,048	-1,59
698,384	4,74
698,721	-0,86
699,057	-5,07
699,394	1,47
699,73	4,48
700,066	6,97
700,403	-0,09
700,739	-0,89
701,075	4,06
701,411	2,5
701,747	1,53
702,083	4,47
702,419	0,8
702,755	-1,1
703,091	4,89
703,427	1,71
703,763	2,57
704,099	3,62
704,435	-3,13
704,77	2,85
705,106	8,35
705,441	-4,31
705,777	-0,1
706,113	-0,12
706,448	-4,18
706,783	-2,24
707,119	10,36
707,454	-0,12
707,789	1,9
708,125	-8,73
708,46	-5,84
708,795	-11,19
709,13	2,64
709,465	4,4
709,8	-1,22
710,135	8,01
710,47	-2,39
710,805	1,05
711,139	3,55
711,474	1,05
711,809	5,93
712,144	-0,15
712,478	-5,31
712,813	-8,55
713,147	-4,29
713,482	-1,49
713,816	-1,56
714,151	3,88
714,485	-3,18
714,819	5,68
715,153	4,04
715,488	-6,58
715,822	-4,61
716,156	10,32
716,49	-0,18
716,824	-4,9
717,158	-9,06
717,492	-0,18
717,826	5,68
718,16	-1,84
718,493	-3,81
718,827	-1,84
719,161	3,18
719,494	-5,71
719,828	7,47
720,161	-4,19
720,495	5,21
720,828	6,77
721,162	-3,55
721,495	-5,71
721,829	1,55
722,162	5,73
722,495	-5,93
722,828	-4,27
723,161	-0,22
723,494	-8,49
723,827	5,96
724,16	6,22
724,493	2,09
724,826	-12,11
725,159	-0,23
725,492	-2,29
725,825	10,09
726,157	-20,97
726,49	6,09
726,823	10,39
727,155	18,59
727,488	-7,89
727,82	-5,35
728,153	-16,77
728,485	22,54
728,817	4,35
729,15	2,31
729,482	-11,28
729,814	-0,3
730,146	-0,28
730,478	16,06
730,81	2,05
731,142	-3,05
731,474	11,99
731,806	-7,42
732,138	3,02
732,47	6,01
732,801	-6,71
733,133	17,61
733,465	-0,33
733,796	-6,13
734,128	17,1
734,46	12,39
734,791	-0,36
735,122	2,25
735,454	3,24
735,785	-3,53
736,116	-0,39
736,448	15,55
736,779	-21,14
737,11	-9,84
737,441	-0,47
737,772	-0,54
738,103	-12,73
738,434	5,65
738,765	-0,39
739,096	-13,96
739,427	-7,17
739,758	10,97
740,088	20,85
740,419	-22,29
740,75	3,36
741,08	-9,59
741,411	9,81
741,741	-25
742,072	14,86
742,402	20,7
742,732	17,33
743,063	12,32
743,393	-0,52
743,723	-0,47
744,053	17,33
744,383	-6,76
744,713	-14,51
745,043	-10,33
745,373	-20,14
745,703	-17,54
746,033	-0,5
746,363	-15,7
746,693	-10,33
747,022	-12,1
747,352	5,41
747,682	-0,57
748,011	-42,31
748,341	-0,6
748,67	-75,29
749	-26,62
749,329	-0,44
749,659	-22,77
749,988	-15,22
750,317	-10,86
750,646	-33,04
750,975	29,38
751,305	-0,89
751,634	25,24
751,963	-10,86
752,292	-0,64
752,62	20
752,949	-6,37
753,278	-48,68
753,607	35,81
753,936	-115
754,264	21,08
754,593	46,81
754,922	22,8
755,25	40,77
755,579	-21,54
755,907	7,77
756,235	-1,32
756,564	-22,35
756,892	16,56
757,22	-32,76
757,548	9,41
757,877	-27,18
758,205	44,6
758,533	-63,79
758,861	-28,36
759,189	-0,77
759,517	-18,45
759,844	-13,16
760,172	37,23
760,5	17,57
760,828	34,21
761,155	42,72
761,483	-22,35
761,811	-22,35
762,138	18,09
762,466	-36,84
762,793	26,92
763,12	-1,18
763,448	46,81
763,775	42,72
764,102	46,05
764,429	52,24
764,757	29,31
765,084	65,67
765,411	-43,53
765,738	18,09
766,065	-60,53
766,392	42,72
766,718	-27,18
767,045	42,5
767,372	13,79
767,699	-1,18
768,025	20
768,352	20
768,678	-1,49
769,005	-177,42
769,331	29,31
769,658	42,5
769,984	-7,69
770,31	-70
770,637	42,72
770,963	-3,23
771,289	44,83
771,615	41,18
771,941	29,31
772,267	13,08
772,593	30,59
772,919	10,53
773,245	-2,5
773,571	28,93
773,897	-3,23
774,222	25,81
774,548	10,53
774,874	-70
775,199	87,5
775,525	-7,69
775,85	91,38
776,176	-8,26
776,501	-57,14
776,827	-79,31
777,152	-47,5
777,477	91,38
777,802	34,69
778,128	-28,36
778,453	30,59
778,778	25,37
779,103	-2,04
779,428	-2,5
779,753	65
780,077	-4,55
780,402	53,06
780,727	278,26
781,052	118,18
781,376	-127,27
781,701	77,27
782,026	23,21
782,35	-90,32
782,675	9,41
782,999	29,31
783,323	-25
783,648	56,38
783,972	281,82
784,296	-127,27
784,62	83,53
784,944	-17,24
785,269	60,34
785,593	16,33
785,917	740
786,24	54,84
786,564	-25
786,888	83,87
787,212	144,9
787,536	-25
787,859	83,87
788,183	38
788,507	54,41
788,83	-353,85
789,154	-146,15
789,477	65
789,8	-250
790,124	170,97
790,447	-121,43
790,77	56,38
791,094	20
791,417	-137,5
791,74	-13,16
792,063	87,5
792,386	54,84
792,709	144,9
793,032	380
793,355	87,5
793,677	83,87
794	46,81
794,323	200
794,645	264,29
794,968	61,54
795,291	112,9
795,613	25,81
795,936	65
796,258	2,44
796,58	-61,29
796,903	67,65
797,225	60,19
797,547	-113,04
797,869	-45,45
798,191	43,48
798,513	-2,5
798,836	-209,09
799,157	20
799,479	20
799,801	-185,71
800,123	-25
800,445	-520
800,767	-250
801,088	121,74
801,41	159,09
801,731	29,31
802,053	-20,41
802,374	-45,45
802,696	-10,64
803,017	-76,92
803,339	-314,29
803,66	42,5
803,981	200
804,302	177,5
804,623	-7,69
804,944	-25
805,265	20
805,586	122,41
805,907	-14,93
806,228	130,77
806,549	108,16
806,87	-25
807,191	42,5
807,511	87,5
807,832	71,43
808,152	-160
808,473	170,97
808,793	25,81
809,114	-45,45
809,434	-4,55
809,755	-127,27
810,075	87,5
810,395	43,48
810,715	16,33
811,035	126,53
811,355	46,34
811,676	29,31
811,995	-17,24
812,315	68,29
812,635	22,37
812,955	121,74
813,275	-3,23
813,595	25,81
813,914	-76,92
814,234	-2,5
814,554	-146,15
814,873	-137,5
815,193	89,8
815,512	83,87
815,831	115,62
816,151	-76,92
816,47	222,5
816,789	77,97
817,108	60,34
817,428	24,68
817,747	328,57
818,066	-340
818,385	-47,5
818,704	-3,23
819,022	34,69
819,341	74
819,66	74
819,979	380
820,298	-520
820,616	87,5
820,935	92,54
821,253	457,14
821,572	53,06
821,89	11,94
822,209	61,54
822,527	-61,29
822,845	-7,69
823,163	-1375
823,482	53,06
823,8	74
824,118	25,37
824,436	34,21
824,754	160,87
825,072	875
825,39	-88
825,707	71,43
826,025	-423,08
826,343	-700
826,661	77,27
826,978	-520
827,296	425
827,613	-32,26
827,931	200
828,248	36,36
828,566	392,86
828,883	18,09
829,2	130,77
829,517	200
829,835	-4,55
830,152	-86,36
830,469	143,75
830,786	52,24
831,103	123,73
831,42	380
831,737	-90,32
832,053	-86,36
832,37	31,25
832,687	-86,36
833,004	9,41
833,32	29,31
833,637	-76,92
833,953	200
834,27	-475
834,586	57,89
834,903	3,12
835,219	34,69
835,535	146
835,851	338,46
836,168	20
836,484	-700
836,8	650
837,116	-475
837,432	-353,85
837,748	-34,78
838,063	-1150
838,379	-73,91
838,695	256,25
839,011	200
839,326	42,5
839,642	118,18
839,958	-73,91
840,273	25,81
840,589	90,24
840,904	-20,41
841,219	121,74
841,535	69,74
841,85	-92,5
842,165	159,09
842,48	20
842,795	164
843,11	122,41
843,425	22,37
843,74	425
844,055	-86,36
844,37	65
844,685	-4,55
845	-215,38
845,314	-45,45
845,629	16,33
845,944	920
846,258	264,29
846,573	75,86
846,887	11,94
847,201	77,67
847,516	141,94
847,83	-127,27
848,144	77,27
848,458	20
848,773	-25
849,087	-284,62
849,401	-250
849,715	75,86
850,029	87,5
850,342	135,71
850,656	200
850,97	-18,45
851,284	-76,92
851,597	-25
851,911	-25
852,225	55,36
852,538	-17,24
852,852	-4,55
853,165	-2,04
853,478	46,05
853,792	-215,38
854,105	9,41
854,418	126,53
854,731	36,36
855,044	-47,5
855,357	-14,93
855,67	65
855,983	-1,72
856,296	40,77
856,609	52,24
856,922	-41,79
857,235	1280
857,547	-20,41
857,86	18,09
858,173	62,35
858,485	-75,51
858,798	-14,93
859,11	-1825
859,423	-47,5
859,735	-68,66
860,047	-284,62
860,359	-492,31
860,672	-1,32
860,984	-47,5
861,296	200
861,608	-9,71
861,92	-1,49
862,232	163,27
862,544	25,24
862,855	112,9
863,167	-112,24
863,479	-160
863,791	-18,45
864,102	-1,49
864,414	-68,66
864,725	-38,78
865,037	51,76
865,348	-1,72
865,659	30,59
865,971	-9,71
866,282	-22,35
866,593	-55,22
866,904	-182,5
867,215	-2,04
867,527	41,89
867,838	-48,68
868,148	-57,14
868,459	-25
868,77	25,37
869,081	7,77
869,392	62,35
869,702	13,79
870,013	-215,38
870,324	-1,72
870,634	12,23
870,945	-17,24
871,255	13,08
871,565	22,37
871,876	21,49
872,186	16,5
872,496	-1,49
872,806	-43,53
873,116	-22,35
873,427	25,37
873,737	10,83
874,047	-1,32
874,356	16,5
874,666	14,05
874,976	-70
875,286	-9,71
875,596	45,71
875,905	20
876,215	-11,76
876,524	-235,48
876,834	-87,23
877,143	-35,92
877,453	6,15
877,762	-1,06
878,071	-9,71
878,38	27,66
878,69	-23,14
878,999	-29,79
879,308	-135,82
879,617	-15,7
879,926	-41,79
880,235	-10,64
880,544	-28,46
880,852	16,5
881,161	-25
881,47	-1,72
881,779	6,15
882,087	20
882,396	-0,97
882,704	14,86
883,013	35,81
883,321	-17,24
883,629	-18,45
883,938	-11,76
884,246	39,49
884,554	20
884,862	-48,68
885,17	-11,76
885,478	6,61
885,786	-27,18
886,094	-17,24
886,402	8,51
886,71	-13,67
887,018	33,98
887,325	13,79
887,633	-7,19
887,941	-48,28
888,248	18,71
888,556	13,79
888,863	239,13
889,171	79,1
889,478	-110,34
889,785	11,94
890,092	23,21
890,4	-4,55
890,707	105,97
891,014	-94,83
891,321	-39,36
891,628	-32,26
891,935	-1,06
892,242	52,24
892,548	-75,51
892,855	71,43
893,162	-54,12
893,469	31,25
893,775	13,79
894,082	71,43
894,388	-475
894,695	-148,39
895,001	-250
895,307	83,87
895,614	-28,36
895,92	13,79
896,226	-45,45
896,532	-215,38
896,838	-17,24
897,144	36,36
897,45	110
897,756	-1,18
898,062	-7,69
898,368	-1,72
898,674	-25
898,98	71,43
899,285	-70
899,591	-1,72
899,896	-20,41
900,202	112,9
900,507	-32,26
900,813	-2,04
901,118	-1,49
901,423	-92,5
901,729	-13,16
902,034	200
902,339	23,21
902,644	20
902,949	-45,45
903,254	-209,09
903,559	20
903,864	56
904,169	-45,45
904,473	-353,85
904,778	-57,14
905,083	-1,32
905,387	137,93
905,692	-57,14
905,996	-7,69
906,301	-700
906,605	112,2
906,909	-32,26
907,214	-264,52
907,518	85,11
907,822	91,38
908,126	8,51
908,43	650
908,734	-146,15
909,038	38
909,342	75,86
909,646	-25
909,95	93,22
910,254	77,97
910,557	-378,57
910,861	7,14
911,165	-76,92
911,468	53,06
911,772	43,48
912,075	34,69
912,378	156,1
912,682	65
912,985	9,41
913,288	71,43
913,591	24,39
913,894	1100
914,198	-4,55
914,501	31,25
914,804	-47,5
915,106	392,86
915,409	740
915,712	-25
916,015	108,16
916,317	135,71
916,62	47,46
916,923	-45,45
917,225	-32,26
917,528	-127,27
917,83	132,5
918,132	134,15
918,435	740
918,737	-160
919,039	134,15
919,341	20
919,643	22,37
919,945	25,81
920,247	61,54
920,549	-2,5
920,851	-17,89
921,153	34,21
921,455	108,16
921,757	740
922,058	61,54
922,36	1100
922,661	61,54
922,963	71,43
923,264	-3,23
923,566	16,33
923,867	-146,15
924,168	-3,23
924,47	200
924,771	77,27
925,072	-215,38
925,373	146
925,674	264,29
925,975	91,38
926,276	53,06
926,577	25,81
926,878	95,35
927,178	407,69
927,479	2,44
927,78	52,24
928,08	-250
928,381	-160
928,681	132,5
928,982	93,42
929,282	-4,55
929,582	380
929,883	-45,45
930,183	4,35
930,483	65
930,783	200
931,083	126,53
931,383	159,09
931,683	54,84
931,983	425
932,283	4,35
932,583	-86,36
932,882	-86,36
933,182	-340
933,482	128
933,781	2,44
934,081	200
934,38	-25
934,68	-250
934,979	130,77
935,278	20
935,577	2,44
935,877	-113,04
936,176	121,74
936,475	16,33
936,774	82,61
937,073	-61,29
937,372	-121,43
937,671	117,11
937,969	71,43
938,268	-520
938,567	-146,15
938,865	141,94
939,164	200
939,463	200
939,761	68,29
940,059	200
940,358	24,68
940,656	119,4
940,954	-52
941,253	-73,91
941,551	269,23
941,849	-160
942,147	71,43
942,445	20
942,743	521,43
943,041	740
943,339	110
943,636	112,9
943,934	77,27
944,232	-34,78
944,529	-340
944,827	130,77
945,124	130,77
945,422	-340
945,719	31,25
946,016	-81,25
946,314	392,86
946,611	-25
946,908	110
947,205	83,87
947,502	-57,14
947,799	135,71
948,096	875
948,393	-284,62
948,69	24,39
948,987	2,44
949,284	25,81
949,58	-160
949,877	43,48
950,173	-1,49
950,47	-284,62
950,766	-880
951,063	-34,78
951,359	171,87
951,655	-215,38
951,952	-86,36
952,248	-25
952,544	1,69
952,84	-191,3
953,136	83,87
953,432	112,9
953,728	56
954,024	59,37
954,32	-92,5
954,615	269,23
954,911	68,29
955,207	-90,32
955,502	57,89
955,798	200
956,093	42,5
956,389	-34,78
956,684	25,81
956,979	11,94
957,275	53,06
957,57	-45,45
957,865	54,84
958,16	56
958,455	59,37
958,75	-2,5
959,045	-340
959,34	-250
959,635	-475
959,929	-7,69
960,224	118,18
960,519	-16
960,813	425
961,108	3,12
961,402	-86,36
961,697	59,37
961,991	7,14
962,286	92,54
962,58	229,03
962,874	115,62
963,168	264,29
963,462	875
963,756	200
964,05	-57,14
964,344	4,35
964,638	-520
964,932	-2,04
965,226	77,27
965,519	74
965,813	-75,51
966,107	-7,69
966,4	82,61
966,694	380
966,987	-925
967,281	87,5
967,574	77,27
967,867	7,14
968,16	-41,46
968,453	-284,62
968,747	875
969,04	-73,91
969,333	89,8
969,626	-1150
969,918	-475
970,211	380
970,504	4,35
970,797	52,24
971,089	1100
971,382	200
971,675	155
971,967	130,77
972,259	82,61
972,552	-76,92
972,844	-76,92
973,136	380
973,429	89,8
973,721	61,54
974,013	2
974,305	112,2
974,597	-19,51
974,889	77,27
975,181	200
975,473	-25
975,764	200
976,056	-76,92
976,348	-34
976,639	118,18
976,931	-25
977,222	121,74
977,514	-284,62
977,805	-700
978,096	-25
978,388	650
978,679	425
978,97	200
979,261	740
979,552	25,81
979,843	89,8
980,134	92
980,425	94,12
980,716	25,81
981,007	200
981,297	24,39
981,588	-925
981,879	14,71
982,169	128
982,46	112,9
982,75	-146,15
983,04	-880
983,331	380
983,621	163,27
983,911	48,05
984,201	121,74
984,491	-3,23
984,781	239,13
985,071	76,84
985,361	281,82
985,651	200
985,941	425
986,231	-57,14
986,521	13,79
986,81	77,27
987,1	-700
987,389	-53,13
987,679	-76,92
987,968	31,25
988,258	1,69
988,547	59,74
988,836	77,27
989,125	-25
989,414	1100
989,704	62,35
989,993	-90,32
990,282	-73,91
990,57	3,12
990,859	36,36
991,148	200
991,437	134,15
991,726	-185,71
992,014	121,74
992,303	-215,38
992,591	-264,52
992,88	875
993,168	-127,27
993,456	-152,17
993,745	-121,43
994,033	380
994,321	42,5
994,609	-25
994,897	245
995,185	3,12
995,473	328,57
995,761	200
996,049	1,69
996,337	560
996,625	68,29
996,912	92
997,2	54,41
997,487	155
997,775	-168,18
998,062	1550
998,35	59,37
998,637	43,48
998,924	77,27
999,212	-442,86
999,499	-250
999,786	65,96
1000,073	2,44
1000,36	-81,25
1000,647	-925
1000,934	71,43
1001,221	90,24
1001,507	68,29
1001,794	-25
1002,081	875
1002,367	-53,13
1002,654	61,54
1002,94	61,54
1003,227	34,69
1003,513	650
1003,8	43,48
1004,086	281,82
1004,372	87,5
1004,658	42,5
1004,944	25,81
1005,23	32,2
1005,516	83,87
1005,802	1100
1006,088	200
1006,374	-185,71
1006,66	-73,91
1006,945	59,37
1007,231	-25
1007,516	93,22
1007,802	-4,55
1008,087	126,53
1008,373	7,14
1008,658	-148,39
1008,944	486,36
1009,229	875
1009,514	228,13
1009,799	71,43
1010,084	200
1010,369	1100
1010,654	54,41
1010,939	20
1011,224	269,23
1011,509	-160
1011,793	1,69
1012,078	11,63
1012,363	-113,04
1012,647	87,5
1012,932	54,84
1013,216	-520
1013,5	229,03
1013,785	-7,69
1014,069	106,9
1014,353	-340
1014,637	44,83
1014,922	56
1015,206	-250
1015,49	-34,78
1015,773	79,1
1016,057	-41,46
1016,341	43,48
1016,625	-119,35
1016,909	46,34
1017,192	54,84
1017,476	74
1017,759	87,5
1018,043	-57,14
1018,326	77,27
1018,61	25,81
1018,893	-4,55
1019,176	-81,25
1019,459	2,44
1019,742	47,46
1020,025	121,74
1020,308	46,34
1020,591	-76,92
1020,874	-53,13
1021,157	-20,41
1021,44	7,14
1021,723	54,84
1022,005	65
1022,288	54,84
